File: Introduction-to-nanophysics/Code/data3/EDS - Au NPs/EDX-spectrum2020.txt
#FORMAT      : EMSA/MAS Spectral Data File
#VERSION     : 1.0
#TITLE       : Spectrum 2
#DATE        : 03-JUN-2020
#TIME        : 13:03
#OWNER       :
#NPOINTS     : 2048.0
#NCOLUMNS    : 1.0
#XUNITS      : keV
#YUNITS      : counts
#DATATYPE    : XY
#XPERCHAN    : 0.005
#OFFSET      : -0.1
#SIGNALTYPE  : EDS
#CHOFFSET    : 20.0
#LIVETIME    : 238.132
#REALTIME    : 249.058
#BEAMKV      : 15.0
#PROBECUR    : 0.0
#MAGCAM      : 150000.0
#XTILTSTGE   : 0.0
#AZIMANGLE   : 0.0
#ELEVANGLE   : 35.0
#XPOSITION mm: 65.1398
#YPOSITION mm: 48.4704
#ZPOSITION mm: 41.4038
##OXINSTPT   : 5
##OXINSTSTROB: 45.60
##OXINSTELEMS: 14,79
##OXINSTLABEL: 14, 1.740, Si
##OXINSTLABEL: 79, 9.713, Au
##OXINSTLABEL: 79, 8.494, Au
##OXINSTLABEL: 79, 2.123, Au
##OXINSTLABEL: 79, 2.410, Au
##OXINSTLABEL: 79, 1.648, Au
##OXINSTLABEL: 79, 0.265, Au
##OXINSTLABEL: 79, 0.251, Au
#SPECTRUM    : Spectral Data Starts Here
-0.10000, 0.0
-0.06500, 14.0
-0.03000, 1803.0
0.00500, 9347.0
0.04000, 6395.0
0.07500, 519.0
0.11000, 86.0
0.14500, 39.0
0.18000, 28.0
0.21500, 43.0
0.25000, 60.0
0.28500, 55.0
0.32000, 22.0
0.35500, 26.0
0.39000, 37.0
0.42500, 37.0
0.46000, 51.0
0.49500, 53.0
0.53000, 56.0
0.56500, 42.0
0.60000, 60.0
0.63500, 57.0
0.67000, 68.0
0.70500, 70.0
0.74000, 101.0
0.77500, 91.0
0.81000, 97.0
0.84500, 104.0
0.88000, 105.0
0.91500, 114.0
0.95000, 116.0
0.98500, 133.0
1.02000, 123.0
1.05500, 125.0
1.09000, 112.0
1.12500, 112.0
1.16000, 120.0
1.19500, 109.0
1.23000, 123.0
1.26500, 116.0
1.30000, 119.0
1.33500, 123.0
1.37000, 132.0
1.40500, 117.0
1.44000, 147.0
1.47500, 132.0
1.51000, 177.0
1.54500, 160.0
1.58000, 172.0
1.61500, 178.0
1.65000, 497.0
1.68500, 3299.0
1.72000, 10879.0
1.75500, 12514.0
1.79000, 5170.0
1.82500, 1192.0
1.86000, 535.0
1.89500, 196.0
1.93000, 65.0
1.96500, 57.0
2.00000, 58.0
2.03500, 80.0
2.07000, 174.0
2.10500, 415.0
2.14000, 531.0
2.17500, 435.0
2.21000, 341.0
2.24500, 204.0
2.28000, 105.0
2.31500, 50.0
2.35000, 45.0
2.38500, 70.0
2.42000, 73.0
2.45500, 62.0
2.49000, 57.0
2.52500, 39.0
2.56000, 44.0
2.59500, 42.0
2.63000, 50.0
2.66500, 56.0
2.70000, 43.0
2.73500, 44.0
2.77000, 42.0
2.80500, 52.0
2.84000, 48.0
2.87500, 46.0
2.91000, 36.0
2.94500, 43.0
2.98000, 38.0
3.01500, 40.0
3.05000, 38.0
3.08500, 41.0
3.12000, 41.0
3.15500, 40.0
3.19000, 42.0
3.22500, 39.0
3.26000, 35.0
3.29500, 40.0
3.33000, 34.0
3.36500, 32.0
3.40000, 42.0
3.43500, 40.0
3.47000, 31.0
3.50500, 34.0
3.54000, 32.0
3.57500, 39.0
3.61000, 29.0
3.64500, 39.0
3.68000, 28.0
3.71500, 38.0
3.75000, 40.0
3.78500, 32.0
3.82000, 32.0
3.85500, 33.0
3.89000, 42.0
3.92500, 32.0
3.96000, 36.0
3.99500, 35.0
4.03000, 22.0
4.06500, 28.0
4.10000, 30.0
4.13500, 38.0
4.17000, 34.0
4.20500, 32.0
4.24000, 23.0
4.27500, 28.0
4.31000, 36.0
4.34500, 33.0
4.38000, 25.0
4.41500, 22.0
4.45000, 20.0
4.48500, 28.0
4.52000, 29.0
4.55500, 25.0
4.59000, 28.0
4.62500, 26.0
4.66000, 24.0
4.69500, 22.0
4.73000, 28.0
4.76500, 22.0
4.80000, 24.0
4.83500, 30.0
4.87000, 30.0
4.90500, 26.0
4.94000, 29.0
4.97500, 25.0
5.01000, 27.0
5.04500, 26.0
5.08000, 26.0
5.11500, 22.0
5.15000, 27.0
5.18500, 24.0
5.22000, 22.0
5.25500, 23.0
5.29000, 21.0
5.32500, 23.0
5.36000, 24.0
5.39500, 25.0
5.43000, 27.0
5.46500, 20.0
5.50000, 23.0
5.53500, 18.0
5.57000, 22.0
5.60500, 21.0
5.64000, 26.0
5.67500, 21.0
5.71000, 23.0
5.74500, 18.0
5.78000, 18.0
5.81500, 20.0
5.85000, 19.0
5.88500, 23.0
5.92000, 25.0
5.95500, 16.0
5.99000, 19.0
6.02500, 17.0
6.06000, 19.0
6.09500, 20.0
6.13000, 20.0
6.16500, 23.0
6.20000, 20.0
6.23500, 20.0
6.27000, 19.0
6.30500, 23.0
6.34000, 20.0
6.37500, 12.0
6.41000, 17.0
6.44500, 19.0
6.48000, 27.0
6.51500, 19.0
6.55000, 19.0
6.58500, 17.0
6.62000, 10.0
6.65500, 17.0
6.69000, 19.0
6.72500, 16.0
6.76000, 13.0
6.79500, 17.0
6.83000, 14.0
6.86500, 17.0
6.90000, 16.0
6.93500, 14.0
6.97000, 14.0
7.00500, 14.0
7.04000, 16.0
7.07500, 14.0
7.11000, 17.0
7.14500, 16.0
7.18000, 11.0
7.21500, 15.0
7.25000, 10.0
7.28500, 10.0
7.32000, 12.0
7.35500, 14.0
7.39000, 24.0
7.42500, 18.0
7.46000, 12.0
7.49500, 15.0
7.53000, 13.0
7.56500, 14.0
7.60000, 18.0
7.63500, 8.0
7.67000, 10.0
7.70500, 13.0
7.74000, 12.0
7.77500, 13.0
7.81000, 10.0
7.84500, 17.0
7.88000, 13.0
7.91500, 16.0
7.95000, 15.0
7.98500, 12.0
8.02000, 15.0
8.05500, 11.0
8.09000, 13.0
8.12500, 11.0
8.16000, 19.0
8.19500, 10.0
8.23000, 8.0
8.26500, 12.0
8.30000, 14.0
8.33500, 8.0
8.37000, 15.0
8.40500, 12.0
8.44000, 8.0
8.47500, 15.0
8.51000, 14.0
8.54500, 10.0
8.58000, 13.0
8.61500, 15.0
8.65000, 12.0
8.68500, 13.0
8.72000, 10.0
8.75500, 7.0
8.79000, 14.0
8.82500, 9.0
8.86000, 10.0
8.89500, 13.0
8.93000, 11.0
8.96500, 10.0
9.00000, 12.0
9.03500, 13.0
9.07000, 11.0
9.10500, 12.0
9.14000, 14.0
9.17500, 8.0
9.21000, 10.0
9.24500, 7.0
9.28000, 9.0
9.31500, 9.0
9.35000, 7.0
9.38500, 10.0
9.42000, 7.0
9.45500, 9.0
9.49000, 11.0
9.52500, 13.0
9.56000, 11.0
9.59500, 17.0
9.63000, 24.0
9.66500, 19.0
9.70000, 26.0
9.73500, 25.0
9.77000, 22.0
9.80500, 18.0
9.84000, 10.0
9.87500, 10.0
9.91000, 11.0
9.94500, 5.0
9.98000, 6.0
10.01500, 5.0
10.05000, 13.0
10.08500, 6.0
10.12000, 11.0
10.13500, 9.0
#ENDOFDATA   :